              UniqID                   X                   Y                   Z             MaxTime           TotalTime        MaxImpedance      MaxTemperature            MaxPower     MaxAverageForce                   
           510582522              22.500              82.500              10.500              10.450              10.450             111.547              52.375              24.750               3.349                   
           511584522              22.500              84.500              11.500               9.750               9.750             111.547              52.375              24.750               3.349                   
           510582521              21.500              82.500              10.500               9.750               9.750             111.547              52.375              24.750               3.349                   
           510579522              22.500              79.500              10.500               9.150               9.150             109.540              52.000              21.625               2.137                   
           510583521              21.500              83.500              10.500               9.750               9.750             111.547              52.375              24.750               3.349                   
           508572521              21.500              72.500               8.500               6.383               6.383             101.393              48.750              23.250               1.308                   
           504543512              12.500              43.500               4.500              28.550              28.550             101.442              55.250              14.250               7.253                   
           509584522              22.500              84.500               9.500               9.750               9.750             111.547              52.375              24.750               3.349                   
           503528506               6.500              28.500               3.500              17.300              17.300              99.212              55.125              12.875               8.126                   
           503539527              27.500              39.500               3.500              38.317              38.316             101.704              55.250              23.000              14.896                   
           509583521              21.500              83.500               9.500               9.750               9.750             111.547              52.375              24.750               3.349                   
           511583521              21.500              83.500              11.500               9.750               9.750             111.547              52.375              24.750               3.349                   
           509573521              21.500              73.500               9.500              13.300              13.300             101.393              52.000              30.375               1.523                   
           511582522              22.500              82.500              11.500               9.750               9.750             111.547              52.375              24.750               3.349                   
           510568542              42.500              68.500              10.500              46.450              46.449             141.262              55.250              16.000              20.554                   
           511583524              24.500              83.500              11.500               0.700               0.700             110.275              52.375              24.750               3.325                   
           510584521              21.500              84.500              10.500               9.750               9.750             111.547              52.375              24.750               3.349                   
           504528506               6.500              28.500               4.500              16.900              16.900              99.212              55.125              12.875               8.126                   
           508579522              22.500              79.500               8.500               9.150               9.150             109.540              52.000              21.625               2.137                   
           503545528              28.500              45.500               3.500              46.150              46.149             105.464              55.250              30.625              11.833                   
           509582522              22.500              82.500               9.500               9.750               9.750             111.547              52.375              24.750               3.349                   
           511584523              23.500              84.500              11.500               0.700               0.700             110.275              52.375              24.750               3.325                   
           505522525              25.500              22.500               5.500              44.950              44.949              99.777              55.000              20.500              22.656                   
           503527507               7.500              27.500               3.500              17.550              17.550              99.212              55.125              12.875               8.126                   
           509583522              22.500              83.500               9.500              10.450              10.450             111.547              52.375              24.750               3.349                   
           509580521              21.500              80.500               9.500               9.150               9.150             109.540              52.000              21.625               2.137                   
           509573523              23.500              73.500               9.500               6.917               6.917             100.987              52.000              30.375               1.523                   
           510583522              22.500              83.500              10.500              10.450              10.450             111.547              52.375              24.750               3.349                   
           511583522              22.500              83.500              11.500              10.450              10.450             111.547              52.375              24.750               3.349                   
           510584522              22.500              84.500              10.500              10.450              10.450             111.547              52.375              24.750               3.349                   
           506555515              15.500              55.500               6.500               8.583               8.583             101.575              55.125              17.750               1.914                   
           504532507               7.500              32.500               4.500              26.600              26.600              99.276              55.250              13.750               7.444                   
           510582523              23.500              82.500              10.500              10.450              10.450             111.547              52.375              24.750               3.349                   
           509583523              23.500              83.500               9.500              10.450              10.450             111.547              52.375              24.750               3.349                   
           510583523              23.500              83.500              10.500              10.450              10.450             111.547              52.375              24.750               3.349                   
           508567542              42.500              67.500               8.500              46.450              46.449             141.262              55.250              16.000              20.554                   
           509579523              23.500              79.500               9.500               9.150               9.150             109.540              52.000              21.625               2.137                   
           502526511              11.500              26.500               2.500               7.717               7.717              98.735              55.500              14.625               7.281                   
           511583523              23.500              83.500              11.500              10.450              10.450             111.547              52.375              24.750               3.349                   
           510574521              21.500              74.500              10.500               6.383               6.383             101.393              48.750              23.250               1.308                   
           505554517              17.500              54.500               5.500               8.583               8.583             101.575              55.125              17.750               1.914                   
           501539526              26.500              39.500               1.500               6.133               6.133             100.117              55.250              22.500              14.722                   
           507560517              17.500              60.500               7.500              28.233              28.233             102.633              54.875              22.750               1.649                   
           509578521              21.500              78.500               9.500               9.150               9.150             109.540              52.000              21.625               2.137                   
           509569543              43.500              69.500               9.500              46.450              46.449             141.262              55.250              16.000              20.554                   
           505527526              26.500              27.500               5.500              43.300              43.300              99.552              55.125              20.750              21.284                   
           510584523              23.500              84.500              10.500              10.450              10.450             111.547              52.375              24.750               3.349                   
           506565518              18.500              65.500               6.500              28.300              28.300             104.250              54.875              21.125               1.449                   
           509582523              23.500              82.500               9.500               0.700               0.700             110.275              52.375              24.750               3.325                   
           511582523              23.500              82.500              11.500               0.700               0.700             110.275              52.375              24.750               3.325                   
           510569542              42.500              69.500              10.500              46.450              46.449             141.262              55.250              16.000              20.554                   
           509584523              23.500              84.500               9.500               0.700               0.700             110.275              52.375              24.750               3.325                   
           509568541              41.500              68.500               9.500              46.450              46.449             141.262              55.250              16.000              20.554                   
           507557538              38.500              57.500               7.500              45.250              45.249             121.565              55.250              23.000              12.936                   
           510582524              24.500              82.500              10.500               0.700               0.700             110.275              52.375              24.750               3.325                   
           507567521              21.500              67.500               7.500               7.867               7.867              99.341              52.625              30.500               1.323                   
           508578522              22.500              78.500               8.500               9.150               9.150             109.540              52.000              21.625               2.137                   
           502535509               9.500              35.500               2.500              27.833              27.833              99.792              55.250              14.500               7.506                   
           509583524              24.500              83.500               9.500               0.700               0.700             110.275              52.375              24.750               3.325                   
           506556516              16.500              56.500               6.500              27.950              27.950             102.286              55.125              17.750               1.914                   
           508568522              22.500              68.500               8.500               7.867               7.867              99.341              52.625              30.500               1.323                   
           510583524              24.500              83.500              10.500               0.700               0.700             110.275              52.375              24.750               3.325                   
           510584524              24.500              84.500              10.500               0.700               0.700             110.275              52.375              24.750               3.325                   
           506556536              36.500              56.500               6.500              45.250              45.249             121.565              55.250              23.000              12.936                   
           508579521              21.500              79.500               8.500               9.150               9.150             109.540              52.000              21.625               2.137                   
           509579521              21.500              79.500               9.500               9.150               9.150             109.540              52.000              21.625               2.137                   
           510574522              22.500              74.500              10.500               6.917               6.917             100.987              52.000              30.375               1.523                   
           507559517              17.500              59.500               7.500              24.700              24.700             102.633              54.875              22.750               1.649                   
           510572521              21.500              72.500              10.500               6.383               6.383             101.393              48.750              23.250               1.308                   
           508575543              43.500              75.500               8.500              19.867              19.867             148.330              55.375              15.875              22.502                   
           508572522              22.500              72.500               8.500               6.917               6.917             100.987              52.000              30.375               1.523                   
           504526525              25.500              26.500               4.500              43.300              43.300              99.552              55.125              20.750              21.284                   
           510579521              21.500              79.500              10.500               9.150               9.150             109.540              52.000              21.625               2.137                   
           509574520              20.500              74.500               9.500               6.383               6.383             101.393              48.750              23.250               1.308                   
           510577545              45.500              77.500              10.500               0.050               0.050          -10000.000              30.000               0.750              26.555                   
           509578522              22.500              78.500               9.500               9.150               9.150             109.540              52.000              21.625               2.137                   
           511578545              45.500              78.500              11.500               0.050               0.050          -10000.000              30.000               0.750              26.555                   
           509569542              42.500              69.500               9.500              46.450              46.449             141.262              55.250              16.000              20.554                   
           510578522              22.500              78.500              10.500               9.150               9.150             109.540              52.000              21.625               2.137                   
           509579522              22.500              79.500               9.500               9.150               9.150             109.540              52.000              21.625               2.137                   
           508580522              22.500              80.500               8.500               9.150               9.150             109.540              52.000              21.625               2.137                   
           505556516              16.500              56.500               5.500              27.950              27.950             102.286              55.125              17.750               1.914                   
           509580522              22.500              80.500               9.500               9.150               9.150             109.540              52.000              21.625               2.137                   
           510580522              22.500              80.500              10.500               9.150               9.150             109.540              52.000              21.625               2.137                   
           503528507               7.500              28.500               3.500              17.550              17.550              99.212              55.125              12.875               8.126                   
           509578523              23.500              78.500               9.500               9.150               9.150             109.540              52.000              21.625               2.137                   
           502528505               5.500              28.500               2.500              16.850              16.850              99.212              55.125              12.875               8.126                   
           508579523              23.500              79.500               8.500               9.150               9.150             109.540              52.000              21.625               2.137                   
           505559516              16.500              59.500               5.500               0.517               0.517             101.095              54.875              20.375               1.540                   
           509562540              40.500              62.500               9.500              45.000              44.999             128.955              55.250              22.000              17.552                   
           510573522              22.500              73.500              10.500              13.300              13.300             101.393              52.000              30.375               1.523                   
           505560517              17.500              60.500               5.500              28.750              28.750             102.633              54.875              22.750               1.649                   
           503538527              27.500              38.500               3.500              38.317              38.316             101.704              55.250              23.000              14.896                   
           508573521              21.500              73.500               8.500              13.300              13.300             101.393              52.000              30.375               1.523                   
           505561517              17.500              61.500               5.500              25.217              25.216             102.633              54.875              22.750               1.649                   
           503526510              10.500              26.500               3.500               8.050               8.050              98.784              55.500              14.625               7.330                   
           510579523              23.500              79.500              10.500               9.150               9.150             109.540              52.000              21.625               2.137                   
           510572543              43.500              72.500              10.500              26.317              26.316             148.617              55.375              15.750              22.500                   
           505555517              17.500              55.500               5.500              27.950              27.950             102.286              55.125              17.750               1.914                   
           509572522              22.500              72.500               9.500              13.300              13.300             101.393              52.000              30.375               1.523                   
           506557536              36.500              57.500               6.500              45.250              45.249             121.565              55.250              23.000              12.936                   
           502533526              26.500              33.500               2.500              42.550              42.550              99.621              55.125              20.000              18.922                   
           510573520              20.500              73.500              10.500               6.383               6.383             101.393              48.750              23.250               1.308                   
           504544511              11.500              44.500               4.500              28.550              28.550             101.442              55.250              14.250               7.253                   
           509580523              23.500              80.500               9.500               9.150               9.150             109.540              52.000              21.625               2.137                   
           508574542              42.500              74.500               8.500              19.867              19.867             148.330              55.375              15.875              22.502                   
           509572520              20.500              72.500               9.500               6.383               6.383             101.393              48.750              23.250               1.308                   
           503545530              30.500              45.500               3.500              46.150              46.149             105.464              55.250              30.625              11.833                   
           508573520              20.500              73.500               8.500               6.383               6.383             101.393              48.750              23.250               1.308                   
           507568522              22.500              68.500               7.500               7.867               7.867              99.341              52.625              30.500               1.323                   
           506522524              24.500              22.500               6.500              44.950              44.949              99.777              55.000              20.500              22.656                   
           502526507               7.500              26.500               2.500               0.400               0.400              98.885              55.000              12.625               7.418                   
           509573520              20.500              73.500               9.500               6.383               6.383             101.393              48.750              23.250               1.308                   
           510573521              21.500              73.500              10.500              13.300              13.300             101.393              52.000              30.375               1.523                   
           509567543              43.500              67.500               9.500              46.450              46.449             141.262              55.250              16.000              20.554                   
           501532525              25.500              32.500               1.500              42.550              42.550              99.621              55.125              20.000              18.922                   
           509572521              21.500              72.500               9.500              13.300              13.300             101.393              52.000              30.375               1.523                   
           504534508               8.500              34.500               4.500              27.833              27.833              99.792              55.250              14.500               7.506                   
           504527509               9.500              27.500               4.500               0.583               0.583              98.823              55.000              12.625               7.362                   
           505556517              17.500              56.500               5.500              27.950              27.950             102.286              55.125              17.750               1.914                   
           508573522              22.500              73.500               8.500              13.300              13.300             101.393              52.000              30.375               1.523                   
           503528508               8.500              28.500               3.500               0.783               0.783              98.885              55.000              12.625               7.418                   
           508574521              21.500              74.500               8.500               6.383               6.383             101.393              48.750              23.250               1.308                   
           503527511              11.500              27.500               3.500               7.717               7.717              98.735              55.500              14.625               7.281                   
           509574521              21.500              74.500               9.500              13.300              13.300             101.393              52.000              30.375               1.523                   
           509573522              22.500              73.500               9.500              13.300              13.300             101.393              52.000              30.375               1.523                   
           505563518              18.500              63.500               5.500              28.300              28.300             104.250              54.875              21.125               1.449                   
           511578544              44.500              78.500              11.500               0.050               0.050          -10000.000              30.000               0.750              26.555                   
           509574522              22.500              74.500               9.500              13.300              13.300             101.393              52.000              30.375               1.523                   
           504545512              12.500              45.500               4.500              28.550              28.550             101.442              55.250              14.250               7.253                   
           510572522              22.500              72.500              10.500               6.917               6.917             100.987              52.000              30.375               1.523                   
           508574522              22.500              74.500               8.500               6.917               6.917             100.987              52.000              30.375               1.523                   
           509572523              23.500              72.500               9.500               6.917               6.917             100.987              52.000              30.375               1.523                   
           508573523              23.500              73.500               8.500               6.917               6.917             100.987              52.000              30.375               1.523                   
           504555515              15.500              55.500               4.500               8.583               8.583             101.575              55.125              17.750               1.914                   
           508573542              42.500              73.500               8.500              26.317              26.316             148.617              55.375              15.750              22.500                   
           510573523              23.500              73.500              10.500               6.917               6.917             100.987              52.000              30.375               1.523                   
           501533526              26.500              33.500               1.500              42.550              42.550              99.621              55.125              20.000              18.922                   
           509574523              23.500              74.500               9.500               6.917               6.917             100.987              52.000              30.375               1.523                   
           505561518              18.500              61.500               5.500               4.050               4.050             101.095              54.875              22.500               1.646                   
           503525510              10.500              25.500               3.500               7.917               7.917              98.769              55.500              14.625               7.311                   
           508567519              19.500              67.500               8.500               6.633               6.633              99.532              50.000              23.750               1.221                   
           503544530              30.500              44.500               3.500              46.150              46.149             105.464              55.250              30.625              11.833                   
           504536509               9.500              36.500               4.500               0.117               0.117          -10000.000              48.375              11.375               7.341                   
           504528508               8.500              28.500               4.500               0.250               0.250              98.823              55.000              12.625               7.362                   
           507568519              19.500              68.500               7.500               6.633               6.633              99.532              50.000              23.750               1.221                   
           509575542              42.500              75.500               9.500              19.867              19.867             148.330              55.375              15.875              22.502                   
           501532526              26.500              32.500               1.500              42.550              42.550              99.621              55.125              20.000              18.922                   
           508568519              19.500              68.500               8.500               6.633               6.633              99.532              50.000              23.750               1.221                   
           509568519              19.500              68.500               9.500               6.633               6.633              99.532              50.000              23.750               1.221                   
           510578544              44.500              78.500              10.500              46.350              46.349             161.182              55.750              20.000              26.559                   
           506556538              38.500              56.500               6.500              45.250              45.249             121.565              55.250              23.000              12.936                   
           508569519              19.500              69.500               8.500               6.633               6.633              99.532              50.000              23.750               1.221                   
           506565519              19.500              65.500               6.500              28.300              28.300             104.250              54.875              21.125               1.449                   
           507567520              20.500              67.500               7.500               6.633               6.633              99.532              50.000              23.750               1.221                   
           504556516              16.500              56.500               4.500              27.950              27.950             102.286              55.125              17.750               1.914                   
           505561516              16.500              61.500               5.500               0.517               0.517             101.095              54.875              20.375               1.540                   
           508567520              20.500              67.500               8.500              14.500              14.500              99.532              52.625              30.500               1.323                   
           509572542              42.500              72.500               9.500              26.317              26.316             148.617              55.375              15.750              22.500                   
           501537528              28.500              37.500               1.500               6.133               6.133             100.117              55.250              22.500              14.722                   
           509567520              20.500              67.500               9.500               6.633               6.633              99.532              50.000              23.750               1.221                   
           502544512              12.500              44.500               2.500              28.550              28.550             101.442              55.250              14.250               7.253                   
           507568520              20.500              68.500               7.500              14.500              14.500              99.532              52.625              30.500               1.323                   
           506556515              15.500              56.500               6.500              19.367              19.367             102.286              55.000              16.875               1.822                   
           508568520              20.500              68.500               8.500              14.500              14.500              99.532              52.625              30.500               1.323                   
           502544513              13.500              44.500               2.500              28.550              28.550             101.442              55.250              14.250               7.253                   
           506523524              24.500              23.500               6.500              44.950              44.949              99.777              55.000              20.500              22.656                   
           509568520              20.500              68.500               9.500              14.500              14.500              99.532              52.625              30.500               1.323                   
           507569520              20.500              69.500               7.500               6.633               6.633              99.532              50.000              23.750               1.221                   
           508569520              20.500              69.500               8.500              14.500              14.500              99.532              52.625              30.500               1.323                   
           509569520              20.500              69.500               9.500               6.633               6.633              99.532              50.000              23.750               1.221                   
           508567521              21.500              67.500               8.500              14.500              14.500              99.532              52.625              30.500               1.323                   
           505560518              18.500              60.500               5.500              28.750              28.750             102.633              54.875              22.750               1.649                   
           507568521              21.500              68.500               7.500              14.500              14.500              99.532              52.625              30.500               1.323                   
           503526525              25.500              26.500               3.500              43.300              43.300              99.552              55.125              20.750              21.284                   
           504526509               9.500              26.500               4.500               8.050               8.050              98.784              55.500              14.625               7.330                   
           508568521              21.500              68.500               8.500              14.500              14.500              99.532              52.625              30.500               1.323                   
           509568521              21.500              68.500               9.500              14.500              14.500              99.532              52.625              30.500               1.323                   
           504541510              10.500              41.500               4.500              27.150              27.150              99.749              55.125              16.125               7.596                   
           507557537              37.500              57.500               7.500              45.250              45.249             121.565              55.250              23.000              12.936                   
           503537508               8.500              37.500               3.500               0.117               0.117          -10000.000              48.375              11.375               7.341                   
           506561516              16.500              61.500               6.500              24.700              24.700             102.633              54.875              22.750               1.649                   
           504528525              25.500              28.500               4.500              43.300              43.300              99.552              55.125              20.750              21.284                   
           508569521              21.500              69.500               8.500              14.500              14.500              99.532              52.625              30.500               1.323                   
           508562540              40.500              62.500               8.500              45.000              44.999             128.955              55.250              22.000              17.552                   
           509567521              21.500              67.500               9.500               7.867               7.867              99.341              52.625              30.500               1.323                   
           507569521              21.500              69.500               7.500               7.867               7.867              99.341              52.625              30.500               1.323                   
           509569521              21.500              69.500               9.500               7.867               7.867              99.341              52.625              30.500               1.323                   
           502531527              27.500              31.500               2.500              42.550              42.550              99.621              55.125              20.000              18.922                   
           508567522              22.500              67.500               8.500               7.867               7.867              99.341              52.625              30.500               1.323                   
           509568522              22.500              68.500               9.500               7.867               7.867              99.341              52.625              30.500               1.323                   
           504544513              13.500              44.500               4.500              28.550              28.550             101.442              55.250              14.250               7.253                   
           508569522              22.500              69.500               8.500               7.867               7.867              99.341              52.625              30.500               1.323                   
           506524524              24.500              24.500               6.500              44.950              44.949              99.777              55.000              20.500              22.656                   
           506563517              17.500              63.500               6.500              28.300              28.300             104.250              54.875              21.125               1.449                   
           503537509               9.500              37.500               3.500               0.117               0.117          -10000.000              48.375              11.375               7.341                   
           505564517              17.500              64.500               5.500              28.300              28.300             104.250              54.875              21.125               1.449                   
           506564517              17.500              64.500               6.500              28.300              28.300             104.250              54.875              21.125               1.449                   
           504539510              10.500              39.500               4.500              27.150              27.150              99.749              55.125              16.125               7.596                   
           502525510              10.500              25.500               2.500               7.717               7.717              98.735              55.500              14.625               7.281                   
           507564517              17.500              64.500               7.500              28.300              28.300             104.250              54.875              21.125               1.449                   
           506565517              17.500              65.500               6.500              28.300              28.300             104.250              54.875              21.125               1.449                   
           505539509               9.500              39.500               5.500              27.150              27.150              99.749              55.125              16.125               7.596                   
           506563518              18.500              63.500               6.500              28.300              28.300             104.250              54.875              21.125               1.449                   
           507563518              18.500              63.500               7.500              28.300              28.300             104.250              54.875              21.125               1.449                   
           508563540              40.500              63.500               8.500              45.000              44.999             128.955              55.250              22.000              17.552                   
           505564518              18.500              64.500               5.500              28.300              28.300             104.250              54.875              21.125               1.449                   
           503533526              26.500              33.500               3.500              42.550              42.550              99.621              55.125              20.000              18.922                   
           504526526              26.500              26.500               4.500              43.300              43.300              99.552              55.125              20.750              21.284                   
           503528525              25.500              28.500               3.500              43.300              43.300              99.552              55.125              20.750              21.284                   
           501539527              27.500              39.500               1.500              44.450              44.449             101.704              55.250              23.000              14.896                   
           506564518              18.500              64.500               6.500              28.300              28.300             104.250              54.875              21.125               1.449                   
           503544529              29.500              44.500               3.500              46.150              46.149             105.464              55.250              30.625              11.833                   
           503528505               5.500              28.500               3.500              16.900              16.900              99.212              55.125              12.875               8.126                   
           507564518              18.500              64.500               7.500              28.300              28.300             104.250              54.875              21.125               1.449                   
           503540510              10.500              40.500               3.500              27.150              27.150              99.749              55.125              16.125               7.596                   
           505565518              18.500              65.500               5.500              28.300              28.300             104.250              54.875              21.125               1.449                   
           507565518              18.500              65.500               7.500              28.300              28.300             104.250              54.875              21.125               1.449                   
           505526525              25.500              26.500               5.500              43.300              43.300              99.552              55.125              20.750              21.284                   
           506563519              19.500              63.500               6.500              28.300              28.300             104.250              54.875              21.125               1.449                   
           505564519              19.500              64.500               5.500              28.300              28.300             104.250              54.875              21.125               1.449                   
           504528505               5.500              28.500               4.500              16.850              16.850              99.212              55.125              12.875               8.126                   
           506564519              19.500              64.500               6.500              28.300              28.300             104.250              54.875              21.125               1.449                   
           507564519              19.500              64.500               7.500              28.300              28.300             104.250              54.875              21.125               1.449                   
           506559516              16.500              59.500               6.500              24.700              24.700             102.633              54.875              22.750               1.649                   
           509569541              41.500              69.500               9.500              46.450              46.449             141.262              55.250              16.000              20.554                   
           505560516              16.500              60.500               5.500              25.217              25.216             102.633              54.875              22.750               1.649                   
           502538527              27.500              38.500               2.500              44.450              44.449             101.704              55.250              23.000              14.896                   
           505554516              16.500              54.500               5.500               8.583               8.583             101.575              55.125              17.750               1.914                   
           506560516              16.500              60.500               6.500              25.217              25.216             102.633              54.875              22.750               1.649                   
           507560516              16.500              60.500               7.500              24.700              24.700             102.633              54.875              22.750               1.649                   
           504531508               8.500              31.500               4.500              26.600              26.600              99.276              55.250              13.750               7.444                   
           505559517              17.500              59.500               5.500              25.217              25.216             102.633              54.875              22.750               1.649                   
           502535507               7.500              35.500               2.500              27.833              27.833              99.792              55.250              14.500               7.506                   
           506559517              17.500              59.500               6.500              28.750              28.750             102.633              54.875              22.750               1.649                   
           504561517              17.500              61.500               4.500               0.517               0.517             101.095              54.875              20.375               1.540                   
           506560517              17.500              60.500               6.500              28.750              28.750             102.633              54.875              22.750               1.649                   
           509577545              45.500              77.500               9.500              46.300              46.299             161.182              55.750              20.000              26.559                   
           506561517              17.500              61.500               6.500              28.750              28.750             102.633              54.875              22.750               1.649                   
           507561517              17.500              61.500               7.500              24.700              24.700             102.633              54.875              22.750               1.649                   
           500539527              27.500              39.500               0.500               6.133               6.133             100.117              55.250              22.500              14.722                   
           502543512              12.500              43.500               2.500              28.550              28.550             101.442              55.250              14.250               7.253                   
           505540510              10.500              40.500               5.500              27.150              27.150              99.749              55.125              16.125               7.596                   
           506559518              18.500              59.500               6.500              28.233              28.233             102.633              54.875              22.750               1.649                   
           506559519              19.500              59.500               6.500               3.533               3.533             100.612              54.750              22.500               1.646                   
           506560518              18.500              60.500               6.500              28.750              28.750             102.633              54.875              22.750               1.649                   
           503544512              12.500              44.500               3.500              28.550              28.550             101.442              55.250              14.250               7.253                   
           507560518              18.500              60.500               7.500              28.233              28.233             102.633              54.875              22.750               1.649                   
           506561518              18.500              61.500               6.500              28.233              28.233             102.633              54.875              22.750               1.649                   
           504560516              16.500              60.500               4.500               0.517               0.517             101.095              54.875              20.375               1.540                   
           504544529              29.500              44.500               4.500              46.150              46.149             105.464              55.250              30.625              11.833                   
           504560517              17.500              60.500               4.500               0.517               0.517             101.095              54.875              20.375               1.540                   
           503530508               8.500              30.500               3.500              26.600              26.600              99.276              55.250              13.750               7.444                   
           502527508               8.500              27.500               2.500               0.783               0.783              98.885              55.000              12.625               7.418                   
           504559517              17.500              59.500               4.500               0.517               0.517             101.095              54.875              20.375               1.540                   
           505559518              18.500              59.500               5.500               4.050               4.050             101.095              54.875              22.500               1.646                   
           504560518              18.500              60.500               4.500               0.517               0.517             101.095              54.875              20.375               1.540                   
           507559518              18.500              59.500               7.500               3.533               3.533             100.612              54.750              22.500               1.646                   
           506557537              37.500              57.500               6.500              45.250              45.249             121.565              55.250              23.000              12.936                   
           504540509               9.500              40.500               4.500              27.150              27.150              99.749              55.125              16.125               7.596                   
           504535509               9.500              35.500               4.500              27.833              27.833              99.792              55.250              14.500               7.506                   
           507561518              18.500              61.500               7.500               3.533               3.533             100.612              54.750              22.500               1.646                   
           505560519              19.500              60.500               5.500               3.533               3.533             100.612              54.750              22.500               1.646                   
           503534509               9.500              34.500               3.500              27.833              27.833              99.792              55.250              14.500               7.506                   
           506560519              19.500              60.500               6.500               3.533               3.533             100.612              54.750              22.500               1.646                   
           507560519              19.500              60.500               7.500               3.533               3.533             100.612              54.750              22.500               1.646                   
           506561519              19.500              61.500               6.500               3.533               3.533             100.612              54.750              22.500               1.646                   
           505555515              15.500              55.500               5.500              27.950              27.950             102.286              55.125              17.750               1.914                   
           504557516              16.500              57.500               4.500              19.367              19.367             102.286              55.000              16.875               1.822                   
           504556515              15.500              56.500               4.500              19.367              19.367             102.286              55.000              16.875               1.822                   
           505556515              15.500              56.500               5.500              27.950              27.950             102.286              55.125              17.750               1.914                   
           503526511              11.500              26.500               3.500               7.717               7.717              98.735              55.500              14.625               7.281                   
           505557515              15.500              57.500               5.500              19.367              19.367             102.286              55.000              16.875               1.822                   
           504555516              16.500              55.500               4.500              27.950              27.950             102.286              55.125              17.750               1.914                   
           504527526              26.500              27.500               4.500              43.300              43.300              99.552              55.125              20.750              21.284                   
           504527510              10.500              27.500               4.500               7.850               7.850              98.784              55.500              14.625               7.330                   
           505555516              16.500              55.500               5.500              27.950              27.950             102.286              55.125              17.750               1.914                   
           506555516              16.500              55.500               6.500              27.950              27.950             102.286              55.125              17.750               1.914                   
           505557516              16.500              57.500               5.500              19.367              19.367             102.286              55.000              16.875               1.822                   
           503527505               5.500              27.500               3.500              16.900              16.900              99.212              55.125              12.875               8.126                   
           506557516              16.500              57.500               6.500              19.367              19.367             102.286              55.000              16.875               1.822                   
           504556517              17.500              56.500               4.500              19.367              19.367             102.286              55.000              16.875               1.822                   
           506556517              17.500              56.500               6.500              19.367              19.367             102.286              55.000              16.875               1.822                   
           504530507               7.500              30.500               4.500              26.600              26.600              99.276              55.250              13.750               7.444                   
           505557517              17.500              57.500               5.500              19.367              19.367             102.286              55.000              16.875               1.822                   
           505554515              15.500              54.500               5.500               8.583               8.583             101.575              55.125              17.750               1.914                   
           504554516              16.500              54.500               4.500               8.583               8.583             101.575              55.125              17.750               1.914                   
           505557538              38.500              57.500               5.500              45.250              45.249             121.565              55.250              23.000              12.936                   
           507563540              40.500              63.500               7.500              45.000              44.999             128.955              55.250              22.000              17.552                   
           509567542              42.500              67.500               9.500              46.450              46.449             141.262              55.250              16.000              20.554                   
           502537528              28.500              37.500               2.500              38.317              38.316             101.704              55.250              23.000              14.896                   
           506554516              16.500              54.500               6.500               8.583               8.583             101.575              55.125              17.750               1.914                   
           504555517              17.500              55.500               4.500               8.583               8.583             101.575              55.125              17.750               1.914                   
           509578545              45.500              78.500               9.500              46.350              46.349             161.182              55.750              20.000              26.559                   
           506555517              17.500              55.500               6.500               8.583               8.583             101.575              55.125              17.750               1.914                   
           503543511              11.500              43.500               3.500              28.550              28.550             101.442              55.250              14.250               7.253                   
           503526507               7.500              26.500               3.500               0.700               0.700              98.885              55.000              12.625               7.423                   
           502539526              26.500              39.500               2.500              38.317              38.316             101.704              55.250              23.000              14.896                   
           509577544              44.500              77.500               9.500              46.350              46.349             161.182              55.750              20.000              26.559                   
           503536508               8.500              36.500               3.500              27.950              27.950              99.792              55.250              14.500               7.506                   
           502544511              11.500              44.500               2.500              28.550              28.550             101.442              55.250              14.250               7.253                   
           503544511              11.500              44.500               3.500              28.550              28.550             101.442              55.250              14.250               7.253                   
           503545511              11.500              45.500               3.500              28.550              28.550             101.442              55.250              14.250               7.253                   
           503527525              25.500              27.500               3.500              43.300              43.300              99.552              55.125              20.750              21.284                   
           503543512              12.500              43.500               3.500              28.550              28.550             101.442              55.250              14.250               7.253                   
           504527505               5.500              27.500               4.500               0.050               0.050              98.884              55.000              12.625               7.423                   
           504544512              12.500              44.500               4.500              28.550              28.550             101.442              55.250              14.250               7.253                   
           502545512              12.500              45.500               2.500              28.550              28.550             101.442              55.250              14.250               7.253                   
           508578545              45.500              78.500               8.500              46.300              46.299             161.182              55.750              20.000              26.559                   
           503545512              12.500              45.500               3.500              28.550              28.550             101.442              55.250              14.250               7.253                   
           503543513              13.500              43.500               3.500              28.550              28.550             101.442              55.250              14.250               7.253                   
           502538528              28.500              38.500               2.500              44.450              44.449             101.704              55.250              23.000              14.896                   
           503544513              13.500              44.500               3.500              28.550              28.550             101.442              55.250              14.250               7.253                   
           503545513              13.500              45.500               3.500              28.550              28.550             101.442              55.250              14.250               7.253                   
           502534508               8.500              34.500               2.500              27.833              27.833              99.792              55.250              14.500               7.506                   
           501539528              28.500              39.500               1.500               6.133               6.133             100.117              55.250              22.500              14.722                   
           504539508               8.500              39.500               4.500              27.150              27.150              99.749              55.125              16.125               7.596                   
           504531507               7.500              31.500               4.500              26.600              26.600              99.276              55.250              13.750               7.444                   
           503540508               8.500              40.500               3.500              27.150              27.150              99.749              55.125              16.125               7.596                   
           504540508               8.500              40.500               4.500              27.150              27.150              99.749              55.125              16.125               7.596                   
           505522524              24.500              22.500               5.500              44.950              44.949              99.777              55.000              20.500              22.656                   
           505540508               8.500              40.500               5.500              27.150              27.150              99.749              55.125              16.125               7.596                   
           501537526              26.500              37.500               1.500               6.133               6.133             100.117              55.250              22.500              14.722                   
           504541508               8.500              41.500               4.500              27.150              27.150              99.749              55.125              16.125               7.596                   
           503539509               9.500              39.500               3.500              27.150              27.150              99.749              55.125              16.125               7.596                   
           504539509               9.500              39.500               4.500              27.150              27.150              99.749              55.125              16.125               7.596                   
           503540509               9.500              40.500               3.500              27.150              27.150              99.749              55.125              16.125               7.596                   
           505540509               9.500              40.500               5.500              27.150              27.150              99.749              55.125              16.125               7.596                   
           503541509               9.500              41.500               3.500              27.150              27.150              99.749              55.125              16.125               7.596                   
           504541509               9.500              41.500               4.500              27.150              27.150              99.749              55.125              16.125               7.596                   
           502528508               8.500              28.500               2.500               0.250               0.250              98.823              55.000              12.625               7.362                   
           505541509               9.500              41.500               5.500              27.150              27.150              99.749              55.125              16.125               7.596                   
           504540510              10.500              40.500               4.500              27.150              27.150              99.749              55.125              16.125               7.596                   
           503534507               7.500              34.500               3.500              27.833              27.833              99.792              55.250              14.500               7.506                   
           509578544              44.500              78.500               9.500              46.350              46.349             161.182              55.750              20.000              26.559                   
           501537527              27.500              37.500               1.500              44.450              44.449             101.704              55.250              23.000              14.896                   
           503535507               7.500              35.500               3.500              27.950              27.950              99.792              55.250              14.500               7.506                   
           504535507               7.500              35.500               4.500              27.833              27.833              99.792              55.250              14.500               7.506                   
           503536507               7.500              36.500               3.500              27.950              27.950              99.792              55.250              14.500               7.506                   
           503526505               5.500              26.500               3.500               0.050               0.050              98.884              55.000              12.625               7.423                   
           503534508               8.500              34.500               3.500              27.833              27.833              99.792              55.250              14.500               7.506                   
           502535508               8.500              35.500               2.500              27.950              27.950              99.792              55.250              14.500               7.506                   
           503535508               8.500              35.500               3.500              27.950              27.950              99.792              55.250              14.500               7.506                   
           504535508               8.500              35.500               4.500              27.950              27.950              99.792              55.250              14.500               7.506                   
           502536508               8.500              36.500               2.500              27.950              27.950              99.792              55.250              14.500               7.506                   
           502531508               8.500              31.500               2.500              26.600              26.600              99.276              55.250              13.750               7.444                   
           504536508               8.500              36.500               4.500              27.950              27.950              99.792              55.250              14.500               7.506                   
           503535509               9.500              35.500               3.500              27.950              27.950              99.792              55.250              14.500               7.506                   
           503536509               9.500              36.500               3.500              27.950              27.950              99.792              55.250              14.500               7.506                   
           503529505               5.500              29.500               3.500              16.850              16.850              99.212              55.125              12.875               8.126                   
           502536507               7.500              36.500               2.500               0.117               0.117          -10000.000              48.375              11.375               7.341                   
           504536507               7.500              36.500               4.500               0.117               0.117          -10000.000              48.375              11.375               7.341                   
           504544530              30.500              44.500               4.500              46.150              46.149             105.464              55.250              30.625              11.833                   
           503537507               7.500              37.500               3.500               0.117               0.117          -10000.000              48.375              11.375               7.341                   
           502537508               8.500              37.500               2.500               0.117               0.117          -10000.000              48.375              11.375               7.341                   
           504537508               8.500              37.500               4.500               0.117               0.117          -10000.000              48.375              11.375               7.341                   
           502531506               6.500              31.500               2.500              26.600              26.600              99.276              55.250              13.750               7.444                   
           502536509               9.500              36.500               2.500               0.117               0.117          -10000.000              48.375              11.375               7.341                   
           503530506               6.500              30.500               3.500              26.600              26.600              99.276              55.250              13.750               7.444                   
           503531506               6.500              31.500               3.500              26.600              26.600              99.276              55.250              13.750               7.444                   
           510574544              44.500              74.500              10.500              19.867              19.867             148.330              55.375              15.875              22.502                   
           504531506               6.500              31.500               4.500              26.600              26.600              99.276              55.250              13.750               7.444                   
           503532506               6.500              32.500               3.500              26.600              26.600              99.276              55.250              13.750               7.444                   
           503532526              26.500              32.500               3.500              42.550              42.550              99.621              55.125              20.000              18.922                   
           502530507               7.500              30.500               2.500              26.600              26.600              99.276              55.250              13.750               7.444                   
           503532525              25.500              32.500               3.500              42.550              42.550              99.621              55.125              20.000              18.922                   
           503530507               7.500              30.500               3.500              26.600              26.600              99.276              55.250              13.750               7.444                   
           502531507               7.500              31.500               2.500              26.600              26.600              99.276              55.250              13.750               7.444                   
           503531507               7.500              31.500               3.500              26.600              26.600              99.276              55.250              13.750               7.444                   
           507556537              37.500              56.500               7.500              45.250              45.249             121.565              55.250              23.000              12.936                   
           502532507               7.500              32.500               2.500              26.600              26.600              99.276              55.250              13.750               7.444                   
           503532507               7.500              32.500               3.500              26.600              26.600              99.276              55.250              13.750               7.444                   
           503531508               8.500              31.500               3.500              26.600              26.600              99.276              55.250              13.750               7.444                   
           503532508               8.500              32.500               3.500              26.600              26.600              99.276              55.250              13.750               7.444                   
           502529506               6.500              29.500               2.500              16.850              16.850              99.212              55.125              12.875               8.126                   
           502527506               6.500              27.500               2.500              17.300              17.300              99.212              55.125              12.875               8.126                   
           511578543              43.500              78.500              11.500               0.050               0.050          -10000.000              30.000               0.750              26.555                   
           503527506               6.500              27.500               3.500              17.300              17.300              99.212              55.125              12.875               8.126                   
           504527506               6.500              27.500               4.500              17.300              17.300              99.212              55.125              12.875               8.126                   
           508563539              39.500              63.500               8.500              45.000              44.999             128.955              55.250              22.000              17.552                   
           502528506               6.500              28.500               2.500              16.900              16.900              99.212              55.125              12.875               8.126                   
           503529506               6.500              29.500               3.500              16.850              16.850              99.212              55.125              12.875               8.126                   
           504529506               6.500              29.500               4.500              16.850              16.850              99.212              55.125              12.875               8.126                   
           507561540              40.500              61.500               7.500              45.000              44.999             128.955              55.250              22.000              17.552                   
           509568543              43.500              68.500               9.500              46.450              46.449             141.262              55.250              16.000              20.554                   
           504523525              25.500              23.500               4.500              44.950              44.949              99.777              55.000              20.500              22.656                   
           502528507               7.500              28.500               2.500              17.250              17.250              99.212              55.125              12.875               8.126                   
           504528507               7.500              28.500               4.500              17.250              17.250              99.212              55.125              12.875               8.126                   
           503529507               7.500              29.500               3.500              16.850              16.850              99.212              55.125              12.875               8.126                   
           502527505               5.500              27.500               2.500               0.050               0.050              98.884              55.000              12.625               7.423                   
           502526506               6.500              26.500               2.500               0.050               0.050              98.884              55.000              12.625               7.423                   
           503526506               6.500              26.500               3.500               0.450               0.450              98.885              55.000              12.625               7.423                   
           504526506               6.500              26.500               4.500               0.050               0.050              98.884              55.000              12.625               7.423                   
           502527507               7.500              27.500               2.500               0.700               0.700              98.885              55.000              12.625               7.423                   
           504527507               7.500              27.500               4.500               0.700               0.700              98.885              55.000              12.625               7.423                   
           504526507               7.500              26.500               4.500               0.400               0.400              98.885              55.000              12.625               7.418                   
           502527509               9.500              27.500               2.500               0.583               0.583              98.823              55.000              12.625               7.362                   
           503526508               8.500              26.500               3.500               0.983               0.983              98.885              55.000              12.625               7.418                   
           503527508               8.500              27.500               3.500               0.983               0.983              98.885              55.000              12.625               7.418                   
           504527508               8.500              27.500               4.500               0.783               0.783              98.885              55.000              12.625               7.418                   
           509573544              44.500              73.500               9.500              46.183              46.183             148.617              55.375              15.875              22.502                   
           502526508               8.500              26.500               2.500               0.450               0.450              98.823              55.000              12.625               7.362                   
           504526508               8.500              26.500               4.500               0.450               0.450              98.823              55.000              12.625               7.362                   
           503526509               9.500              26.500               3.500               8.300               8.300              98.823              55.500              14.625               7.362                   
           507562540              40.500              62.500               7.500              45.000              44.999             128.955              55.250              22.000              17.552                   
           503527509               9.500              27.500               3.500               8.300               8.300              98.823              55.500              14.625               7.362                   
           503528509               9.500              28.500               3.500               0.383               0.383              98.823              55.000              12.625               7.362                   
           502526509               9.500              26.500               2.500               8.050               8.050              98.784              55.500              14.625               7.330                   
           502528509               9.500              28.500               2.500               0.133               0.133              98.784              54.750              12.625               7.330                   
           508578544              44.500              78.500               8.500              46.300              46.299             161.182              55.750              20.000              26.559                   
           504528509               9.500              28.500               4.500               0.133               0.133              98.784              54.750              12.625               7.330                   
           502527510              10.500              27.500               2.500               7.850               7.850              98.784              55.500              14.625               7.330                   
           503527510              10.500              27.500               3.500               8.050               8.050              98.784              55.500              14.625               7.330                   
           509563540              40.500              63.500               9.500              45.000              44.999             128.955              55.250              22.000              17.552                   
           508561541              41.500              61.500               8.500              45.000              44.999             128.955              55.250              22.000              17.552                   
           503528510              10.500              28.500               3.500               0.133               0.133              98.784              54.750              12.625               7.330                   
           508577544              44.500              77.500               8.500              46.300              46.299             161.182              55.750              20.000              26.559                   
           502543529              29.500              43.500               2.500              46.150              46.149             105.464              55.250              30.625              11.833                   
           503525508               8.500              25.500               3.500               0.200               0.200              98.769              54.375              12.625               7.311                   
           502525509               9.500              25.500               2.500               0.200               0.200              98.769              54.375              12.625               7.311                   
           503525509               9.500              25.500               3.500               7.917               7.917              98.769              55.500              14.625               7.311                   
           510573542              42.500              73.500              10.500              26.317              26.316             148.617              55.375              15.750              22.500                   
           506558538              38.500              58.500               6.500              45.250              45.249             121.565              55.250              23.000              12.936                   
           504522524              24.500              22.500               4.500              44.950              44.949              99.777              55.000              20.500              22.656                   
           507557536              36.500              57.500               7.500              45.250              45.249             121.565              55.250              23.000              12.936                   
           504525509               9.500              25.500               4.500               0.200               0.200              98.769              54.375              12.625               7.311                   
           502526510              10.500              26.500               2.500               7.917               7.917              98.769              55.500              14.625               7.311                   
           509572543              43.500              72.500               9.500              26.317              26.316             148.617              55.375              15.750              22.500                   
           504526510              10.500              26.500               4.500               7.917               7.917              98.769              55.500              14.625               7.311                   
           504525510              10.500              25.500               4.500               7.717               7.717              98.735              55.500              14.625               7.281                   
           503525511              11.500              25.500               3.500               7.717               7.717              98.735              55.500              14.625               7.281                   
           504526511              11.500              26.500               4.500               7.717               7.717              98.735              55.500              14.625               7.281                   
           510577543              43.500              77.500              10.500               0.050               0.050          -10000.000              30.000               0.750              26.555                   
           510568541              41.500              68.500              10.500              46.450              46.449             141.262              55.250              16.000              20.554                   
           509578543              43.500              78.500               9.500              46.350              46.349             161.182              55.750              20.000              26.559                   
           510578543              43.500              78.500              10.500              46.350              46.349             161.182              55.750              20.000              26.559                   
           507562541              41.500              62.500               7.500              45.000              44.999             128.955              55.250              22.000              17.552                   
           510579543              43.500              79.500              10.500               0.050               0.050          -10000.000              30.000               0.750              26.555                   
           510577544              44.500              77.500              10.500              46.350              46.349             161.182              55.750              20.000              26.559                   
           511577544              44.500              77.500              11.500               0.050               0.050          -10000.000              30.000               0.750              26.555                   
           509579544              44.500              79.500               9.500              46.350              46.349             161.182              55.750              20.000              26.559                   
           510579544              44.500              79.500              10.500              46.350              46.349             161.182              55.750              20.000              26.559                   
           511579544              44.500              79.500              11.500               0.050               0.050          -10000.000              30.000               0.750              26.555                   
           510578545              45.500              78.500              10.500              46.350              46.349             161.182              55.750              20.000              26.559                   
           510579545              45.500              79.500              10.500               0.050               0.050          -10000.000              30.000               0.750              26.555                   
           509577543              43.500              77.500               9.500              46.300              46.299             161.182              55.750              20.000              26.559                   
           508578543              43.500              78.500               8.500              46.300              46.299             161.182              55.750              20.000              26.559                   
           509579543              43.500              79.500               9.500              46.300              46.299             161.182              55.750              20.000              26.559                   
           508579544              44.500              79.500               8.500              46.300              46.299             161.182              55.750              20.000              26.559                   
           509579545              45.500              79.500               9.500              46.300              46.299             161.182              55.750              20.000              26.559                   
           507562539              39.500              62.500               7.500              45.000              44.999             128.955              55.250              22.000              17.552                   
           509573542              42.500              73.500               9.500              46.183              46.183             148.617              55.375              15.875              22.502                   
           509574542              42.500              74.500               9.500              46.183              46.183             148.617              55.375              15.875              22.502                   
           508572543              43.500              72.500               8.500              26.317              26.316             148.617              55.375              15.750              22.500                   
           502544529              29.500              44.500               2.500              46.150              46.149             105.464              55.250              30.625              11.833                   
           508573543              43.500              73.500               8.500              46.183              46.183             148.617              55.375              15.875              22.502                   
           509574544              44.500              74.500               9.500              46.183              46.183             148.617              55.375              15.875              22.502                   
           509573543              43.500              73.500               9.500              46.183              46.183             148.617              55.375              15.875              22.502                   
           510573543              43.500              73.500              10.500              46.183              46.183             148.617              55.375              15.875              22.502                   
           508574543              43.500              74.500               8.500              46.183              46.183             148.617              55.375              15.875              22.502                   
           503537527              27.500              37.500               3.500              38.317              38.316             101.704              55.250              23.000              14.896                   
           509574543              43.500              74.500               9.500              46.183              46.183             148.617              55.375              15.875              22.502                   
           510574543              43.500              74.500              10.500              46.183              46.183             148.617              55.375              15.875              22.502                   
           509572544              44.500              72.500               9.500              26.317              26.316             148.617              55.375              15.750              22.500                   
           508573544              44.500              73.500               8.500              26.317              26.316             148.617              55.375              15.750              22.500                   
           510573544              44.500              73.500              10.500              26.317              26.316             148.617              55.375              15.750              22.500                   
           510574542              42.500              74.500              10.500              19.867              19.867             148.330              55.375              15.875              22.502                   
           502532526              26.500              32.500               2.500              42.550              42.550              99.621              55.125              20.000              18.922                   
           509575543              43.500              75.500               9.500              19.867              19.867             148.330              55.375              15.875              22.502                   
           501538527              27.500              38.500               1.500              44.450              44.449             101.704              55.250              23.000              14.896                   
           510575543              43.500              75.500              10.500              19.867              19.867             148.330              55.375              15.875              22.502                   
           508574544              44.500              74.500               8.500              19.867              19.867             148.330              55.375              15.875              22.502                   
           509575544              44.500              75.500               9.500              19.867              19.867             148.330              55.375              15.875              22.502                   
           509567541              41.500              67.500               9.500              46.450              46.449             141.262              55.250              16.000              20.554                   
           508568541              41.500              68.500               8.500              46.450              46.449             141.262              55.250              16.000              20.554                   
           503538526              26.500              38.500               3.500              38.317              38.316             101.704              55.250              23.000              14.896                   
           510567542              42.500              67.500              10.500              46.450              46.449             141.262              55.250              16.000              20.554                   
           508562539              39.500              62.500               8.500              45.000              44.999             128.955              55.250              22.000              17.552                   
           508568542              42.500              68.500               8.500              46.450              46.449             141.262              55.250              16.000              20.554                   
           509568542              42.500              68.500               9.500              46.450              46.449             141.262              55.250              16.000              20.554                   
           508569542              42.500              69.500               8.500              46.450              46.449             141.262              55.250              16.000              20.554                   
           508568543              43.500              68.500               8.500              46.450              46.449             141.262              55.250              16.000              20.554                   
           510568543              43.500              68.500              10.500              46.450              46.449             141.262              55.250              16.000              20.554                   
           502539527              27.500              39.500               2.500              44.450              44.449             101.704              55.250              23.000              14.896                   
           508561539              39.500              61.500               8.500              45.000              44.999             128.955              55.250              22.000              17.552                   
           505558537              37.500              58.500               5.500              45.250              45.249             121.565              55.250              23.000              12.936                   
           509562539              39.500              62.500               9.500              45.000              44.999             128.955              55.250              22.000              17.552                   
           508561540              40.500              61.500               8.500              45.000              44.999             128.955              55.250              22.000              17.552                   
           509561540              40.500              61.500               9.500              45.000              44.999             128.955              55.250              22.000              17.552                   
           508562541              41.500              62.500               8.500              45.000              44.999             128.955              55.250              22.000              17.552                   
           509562541              41.500              62.500               9.500              45.000              44.999             128.955              55.250              22.000              17.552                   
           503545529              29.500              45.500               3.500              46.150              46.149             105.464              55.250              30.625              11.833                   
           502533525              25.500              33.500               2.500              42.550              42.550              99.621              55.125              20.000              18.922                   
           508563541              41.500              63.500               8.500              45.000              44.999             128.955              55.250              22.000              17.552                   
           505557536              36.500              57.500               5.500              45.250              45.249             121.565              55.250              23.000              12.936                   
           500538527              27.500              38.500               0.500               6.133               6.133             100.117              55.250              22.500              14.722                   
           506558536              36.500              58.500               6.500              45.250              45.249             121.565              55.250              23.000              12.936                   
           505556537              37.500              56.500               5.500              45.250              45.249             121.565              55.250              23.000              12.936                   
           502531525              25.500              31.500               2.500              42.550              42.550              99.621              55.125              20.000              18.922                   
           506556537              37.500              56.500               6.500              45.250              45.249             121.565              55.250              23.000              12.936                   
           505557537              37.500              57.500               5.500              45.250              45.249             121.565              55.250              23.000              12.936                   
           506558537              37.500              58.500               6.500              45.250              45.249             121.565              55.250              23.000              12.936                   
           507558537              37.500              58.500               7.500              45.250              45.249             121.565              55.250              23.000              12.936                   
           506557538              38.500              57.500               6.500              45.250              45.249             121.565              55.250              23.000              12.936                   
           503543528              28.500              43.500               3.500              46.150              46.149             105.464              55.250              30.625              11.833                   
           502544528              28.500              44.500               2.500              46.150              46.149             105.464              55.250              30.625              11.833                   
           503544528              28.500              44.500               3.500              46.150              46.149             105.464              55.250              30.625              11.833                   
           504544528              28.500              44.500               4.500              46.150              46.149             105.464              55.250              30.625              11.833                   
           503543529              29.500              43.500               3.500              46.150              46.149             105.464              55.250              30.625              11.833                   
           504543529              29.500              43.500               4.500              46.150              46.149             105.464              55.250              30.625              11.833                   
           502545529              29.500              45.500               2.500              46.150              46.149             105.464              55.250              30.625              11.833                   
           504545529              29.500              45.500               4.500              46.150              46.149             105.464              55.250              30.625              11.833                   
           503543530              30.500              43.500               3.500              46.150              46.149             105.464              55.250              30.625              11.833                   
           502544530              30.500              44.500               2.500              46.150              46.149             105.464              55.250              30.625              11.833                   
           502537526              26.500              37.500               2.500              38.317              38.316             101.704              55.250              23.000              14.896                   
           501538526              26.500              38.500               1.500              44.450              44.449             101.704              55.250              23.000              14.896                   
           502538526              26.500              38.500               2.500              44.450              44.449             101.704              55.250              23.000              14.896                   
           502537527              27.500              37.500               2.500              44.450              44.449             101.704              55.250              23.000              14.896                   
           501538528              28.500              38.500               1.500              44.450              44.449             101.704              55.250              23.000              14.896                   
           503538528              28.500              38.500               3.500              38.317              38.316             101.704              55.250              23.000              14.896                   
           502539528              28.500              39.500               2.500              38.317              38.316             101.704              55.250              23.000              14.896                   
           500538526              26.500              38.500               0.500               6.133               6.133             100.117              55.250              22.500              14.722                   
           500537527              27.500              37.500               0.500               6.133               6.133             100.117              55.250              22.500              14.722                   
           500538528              28.500              38.500               0.500               6.133               6.133             100.117              55.250              22.500              14.722                   
           502532525              25.500              32.500               2.500              42.550              42.550              99.621              55.125              20.000              18.922                   
           501531526              26.500              31.500               1.500              42.550              42.550              99.621              55.125              20.000              18.922                   
           502531526              26.500              31.500               2.500              42.550              42.550              99.621              55.125              20.000              18.922                   
           503531526              26.500              31.500               3.500              42.550              42.550              99.621              55.125              20.000              18.922                   
           501532527              27.500              32.500               1.500              42.550              42.550              99.621              55.125              20.000              18.922                   
           502532527              27.500              32.500               2.500              42.550              42.550              99.621              55.125              20.000              18.922                   
           503532527              27.500              32.500               3.500              42.550              42.550              99.621              55.125              20.000              18.922                   
           502533527              27.500              33.500               2.500              42.550              42.550              99.621              55.125              20.000              18.922                   
           504526524              24.500              26.500               4.500              43.300              43.300              99.552              55.125              20.750              21.284                   
           503527524              24.500              27.500               3.500              43.300              43.300              99.552              55.125              20.750              21.284                   
           504527524              24.500              27.500               4.500              43.300              43.300              99.552              55.125              20.750              21.284                   
           505527524              24.500              27.500               5.500              43.300              43.300              99.552              55.125              20.750              21.284                   
           504528524              24.500              28.500               4.500              43.300              43.300              99.552              55.125              20.750              21.284                   
           504527525              25.500              27.500               4.500              43.300              43.300              99.552              55.125              20.750              21.284                   
           505527525              25.500              27.500               5.500              43.300              43.300              99.552              55.125              20.750              21.284                   
           505528525              25.500              28.500               5.500              43.300              43.300              99.552              55.125              20.750              21.284                   
           503527526              26.500              27.500               3.500              43.300              43.300              99.552              55.125              20.750              21.284                   
           504528526              26.500              28.500               4.500              43.300              43.300              99.552              55.125              20.750              21.284                   
           505522523              23.500              22.500               5.500              44.950              44.949              99.777              55.000              20.500              22.656                   
           504523523              23.500              23.500               4.500              44.950              44.949              99.777              55.000              20.500              22.656                   
           505523523              23.500              23.500               5.500              44.950              44.949              99.777              55.000              20.500              22.656                   
           506523523              23.500              23.500               6.500              44.950              44.949              99.777              55.000              20.500              22.656                   
           505524523              23.500              24.500               5.500              44.950              44.949              99.777              55.000              20.500              22.656                   
           504523524              24.500              23.500               4.500              44.950              44.949              99.777              55.000              20.500              22.656                   
           505523524              24.500              23.500               5.500              44.950              44.949              99.777              55.000              20.500              22.656                   
           504524524              24.500              24.500               4.500              44.950              44.949              99.777              55.000              20.500              22.656                   
           505524524              24.500              24.500               5.500              44.950              44.949              99.777              55.000              20.500              22.656                   
           505523525              25.500              23.500               5.500              44.950              44.949              99.777              55.000              20.500              22.656                   
           506523525              25.500              23.500               6.500              44.950              44.949              99.777              55.000              20.500              22.656                   
           505524525              25.500              24.500               5.500              44.950              44.949              99.777              55.000              20.500              22.656                   
